SpectraSuite Data File
++++++++++++++++++++++++++++++++++++
Date: Mon Jan 12 10:55:21 EST 2009
User: Lex
Dark Spectrum Present: Yes
Reference Spectrum Present: Yes
Number of Sampled Component Spectra: 1
Spectrometers: USB4E03001
Integration Time (usec): 100000 (USB4E03001)
Spectra Averaged: 5 (USB4E03001)
Boxcar Smoothing: 5 (USB4E03001)
Correct for Electrical Dark: No (USB4E03001)
Strobe/Lamp Enabled: Yes (USB4E03001)
Correct for Detector Non-linearity: No (USB4E03001)
Correct for Stray Light: No (USB4E03001)
Number of Pixels in Processed Spectrum: 3648
>>>>>Begin Processed Spectral Data<<<<<
177.57	-13.333
177.79	-13.333
178.01	-13.333
178.23	450.000
178.45	50.847
178.66	231.579
178.88	205.473
179.10	163.569
179.32	139.934
179.54	103.866
179.76	84.248
179.98	111.846
180.20	126.061
180.42	124.762
180.64	286.957
180.86	580.769
181.08	138.889
181.30	157.068
181.52	265.693
181.74	860.000
181.96	-2768.421
182.18	-887.143
182.40	-682.192
182.62	-2972.222
182.84	-855.000
183.06	3933.333
183.28	856.716
183.50	-540.476
183.72	-641.429
183.94	-549.206
184.16	378.947
184.38	-270.588
184.60	-401.961
184.82	539.535
185.04	4275.000
185.26	386.538
185.48	-1281.250
185.69	-245.333
185.91	-224.194
186.13	231.746
186.35	344.262
186.57	-335.849
186.79	167.424
187.01	367.143
187.23	-700.000
187.45	-293.396
187.67	-221.014
187.89	-244.086
188.11	368.831
188.33	1048.276
188.55	-508.772
188.77	-2877.778
188.99	423.656
189.21	351.200
189.42	223.902
189.64	326.613
189.86	398.947
190.08	340.909
190.30	532.941
190.52	10925.000
190.74	337.234
190.96	896.970
191.18	-1528.571
191.40	-249.727
191.62	-145.973
191.84	-107.788
192.06	-101.974
192.27	-161.039
192.49	-136.842
192.71	-785.965
192.93	-341.860
193.15	-69.307
193.37	-123.243
193.59	-129.565
193.81	-206.667
194.03	-310.959
194.25	-149.565
194.47	2900.000
194.68	-207.463
194.90	-188.000
195.12	-22.556
195.34	439.474
195.56	350.000
195.78	308.621
196.00	293.000
196.22	180.513
196.44	189.796
196.66	235.937
196.87	329.787
197.09	269.841
197.31	344.348
197.53	-1891.667
197.75	1000.000
197.97	530.769
198.19	-291.304
198.41	-101.471
198.63	-23.164
198.84	-280.952
199.06	-98.276
199.28	-31.217
199.50	-25.000
199.72	-59.509
199.94	-530.189
200.16	-103.731
200.38	-89.865
200.59	-129.911
200.81	-122.064
201.03	-242.000
201.25	-158.687
201.47	-691.667
201.69	914.085
201.91	393.103
202.13	279.424
202.34	349.738
202.56	234.783
202.78	192.877
203.00	266.275
203.22	176.238
203.44	187.633
203.66	179.505
203.87	222.754
204.09	262.069
204.31	5480.000
204.53	-1027.586
204.75	692.857
204.97	456.790
205.19	1881.250
205.40	2950.000
205.62	1737.500
205.84	487.097
206.06	-2106.667
206.28	343.165
206.50	650.769
206.71	258.378
206.93	169.778
207.15	248.256
207.37	300.000
207.59	282.692
207.81	221.277
208.02	161.806
208.24	144.909
208.46	155.620
208.68	137.160
208.90	130.000
209.12	197.635
209.33	306.114
209.55	188.110
209.77	185.237
209.99	161.429
210.21	186.604
210.43	235.849
210.64	310.753
210.86	226.394
211.08	675.000
211.30	918.367
211.52	497.222
211.74	374.490
211.95	750.943
212.17	320.930
212.39	199.074
212.61	112.595
212.83	89.691
213.04	108.475
213.26	7.792
213.48	6.400
213.70	44.937
213.92	38.095
214.13	13.270
214.35	20.085
214.57	66.667
214.79	-36.364
215.01	54.118
215.22	-318.750
215.44	149.606
215.66	254.762
215.88	210.345
216.10	513.158
216.31	-358.730
216.53	-103.125
216.75	-86.982
216.97	-71.749
217.19	-360.000
217.40	-2028.571
217.62	-629.630
217.84	-263.580
218.06	-240.132
218.27	-147.895
218.49	-300.935
218.71	-1700.000
218.93	-1353.333
219.15	-3710.000
219.36	-535.000
219.58	-506.122
219.80	2471.429
220.02	113.710
220.23	117.284
220.45	104.641
220.67	125.123
220.89	145.342
221.11	223.750
221.32	1200.000
221.54	-2.586
221.76	258.333
221.98	91.549
222.19	-80.556
222.41	-244.643
222.63	-91.573
222.85	-429.487
223.06	-875.000
223.28	-1171.875
223.50	-323.711
223.72	-1054.545
223.93	794.444
224.15	988.060
224.37	-1571.429
224.59	-4792.308
224.80	-1489.744
225.02	-794.828
225.24	-180.128
225.46	-100.000
225.67	-167.630
225.89	6483.333
226.11	542.466
226.33	520.000
226.54	426.923
226.76	180.374
226.98	300.000
227.20	284.848
227.41	111.039
227.63	210.448
227.85	165.799
228.06	90.557
228.28	116.792
228.50	85.119
228.72	76.036
228.93	98.168
229.15	96.615
229.37	79.698
229.59	69.697
229.80	68.072
230.02	76.451
230.24	75.933
230.45	97.017
230.67	82.659
230.89	84.628
231.11	123.941
231.32	92.055
231.54	110.638
231.76	111.691
231.97	166.763
232.19	169.405
232.41	121.505
232.63	190.000
232.84	153.636
233.06	159.884
233.28	171.037
233.49	118.349
233.71	141.896
233.93	111.262
234.14	111.397
234.36	82.070
234.58	80.820
234.79	84.091
235.01	73.208
235.23	50.723
235.45	38.422
235.66	40.164
235.88	43.015
236.10	32.334
236.31	29.639
236.53	8.503
236.75	-83.333
236.96	-266.667
237.18	-66.667
237.40	54.717
237.61	-86.000
237.83	-1318.750
238.05	-441.026
238.26	-526.471
238.48	1788.235
238.70	141.102
238.91	196.847
239.13	160.793
239.35	138.832
239.56	183.333
239.78	1745.455
240.00	267.033
240.21	325.397
240.43	99.288
240.65	70.419
240.86	53.631
241.08	47.702
241.30	32.594
241.51	37.227
241.73	41.642
241.95	53.065
242.16	51.974
242.38	51.677
242.60	41.634
242.81	36.055
243.03	37.065
243.25	43.081
243.46	49.571
243.68	57.129
243.90	63.908
244.11	52.784
244.33	45.197
244.55	39.856
244.76	34.310
244.98	43.290
245.19	45.445
245.41	45.833
245.63	35.997
245.84	30.301
246.06	18.893
246.28	14.711
246.49	17.213
246.71	20.449
246.92	17.485
247.14	15.792
247.36	12.881
247.57	16.620
247.79	17.940
248.01	15.952
248.22	18.998
248.44	18.155
248.65	23.856
248.87	23.187
249.09	23.521
249.30	23.054
249.52	34.363
249.74	35.377
249.95	28.510
250.17	32.154
250.38	35.394
250.60	35.412
250.82	39.572
251.03	36.799
251.25	40.622
251.46	36.828
251.68	42.370
251.90	30.762
252.11	22.631
252.33	23.609
252.54	15.160
252.76	17.551
252.98	25.185
253.19	29.840
253.41	35.929
253.62	44.535
253.84	41.824
254.06	45.577
254.27	33.203
254.49	37.793
254.70	53.462
254.92	59.731
255.14	50.000
255.35	41.004
255.57	34.332
255.78	26.539
256.00	5.424
256.21	-0.147
256.43	-6.576
256.65	23.199
256.86	33.389
257.08	25.821
257.29	22.887
257.51	30.631
257.72	25.674
257.94	29.589
258.16	25.355
258.37	28.429
258.59	27.184
258.80	28.563
259.02	22.073
259.23	13.828
259.45	10.085
259.66	6.750
259.88	10.112
260.10	12.417
260.31	10.895
260.53	15.042
260.74	9.758
260.96	10.898
261.17	8.629
261.39	8.718
261.60	8.329
261.82	12.117
262.04	18.112
262.25	13.415
262.47	12.509
262.68	17.398
262.90	12.384
263.11	23.336
263.33	20.308
263.54	32.747
263.76	37.435
263.97	48.400
264.19	53.672
264.40	59.160
264.62	65.199
264.84	56.066
265.05	44.009
265.27	40.125
265.48	37.541
265.70	32.465
265.91	20.227
266.13	15.558
266.34	13.922
266.56	7.344
266.77	2.968
266.99	-11.941
267.20	-2.212
267.42	-2.951
267.63	4.191
267.85	2.612
268.06	3.265
268.28	1.647
268.49	1.546
268.71	-3.122
268.92	9.829
269.14	13.743
269.35	16.486
269.57	22.222
269.78	30.652
270.00	23.341
270.21	15.154
270.43	15.346
270.64	16.332
270.86	18.612
271.07	19.658
271.29	15.868
271.50	16.614
271.72	16.955
271.93	10.457
272.15	2.053
272.36	3.565
272.58	11.104
272.79	8.962
273.01	11.371
273.22	16.016
273.44	15.269
273.65	25.833
273.87	24.825
274.08	32.587
274.30	32.151
274.51	33.798
274.73	37.029
274.94	35.971
275.16	43.280
275.37	44.752
275.59	44.372
275.80	45.785
276.01	35.384
276.23	35.193
276.44	34.221
276.66	37.831
276.87	37.483
277.09	43.309
277.30	47.334
277.52	41.960
277.73	39.507
277.95	36.473
278.16	39.441
278.38	37.049
278.59	34.756
278.80	28.467
279.02	24.871
279.23	32.491
279.45	30.608
279.66	27.188
279.88	31.689
280.09	35.998
280.31	36.814
280.52	28.434
280.73	32.442
280.95	31.077
281.16	33.157
281.38	36.405
281.59	32.925
281.81	36.030
282.02	37.286
282.24	33.542
282.45	28.020
282.66	25.873
282.88	26.800
283.09	26.285
283.31	29.602
283.52	30.789
283.74	31.171
283.95	30.450
284.16	24.255
284.38	21.419
284.59	20.400
284.81	24.719
285.02	25.387
285.23	30.354
285.45	32.042
285.66	29.379
285.88	28.060
286.09	28.130
286.31	28.996
286.52	28.467
286.73	29.418
286.95	27.864
287.16	25.752
287.38	25.180
287.59	20.492
287.80	19.486
288.02	20.544
288.23	17.446
288.45	21.796
288.66	22.611
288.87	26.138
289.09	21.533
289.30	22.699
289.52	26.716
289.73	22.990
289.94	25.091
290.16	24.954
290.37	24.726
290.58	23.803
290.80	12.378
291.01	9.207
291.23	4.749
291.44	10.343
291.65	12.197
291.87	9.079
292.08	13.456
292.29	12.243
292.51	14.523
292.72	13.882
292.94	16.245
293.15	19.269
293.36	16.635
293.58	19.864
293.79	21.250
294.00	20.623
294.22	17.757
294.43	21.004
294.65	22.997
294.86	16.399
295.07	15.590
295.29	18.229
295.50	16.458
295.71	14.378
295.93	14.931
296.14	14.903
296.35	14.138
296.57	14.661
296.78	10.847
296.99	11.092
297.21	14.413
297.42	18.426
297.63	20.305
297.85	20.131
298.06	25.851
298.28	28.382
298.49	28.729
298.70	27.372
298.92	30.387
299.13	31.838
299.34	31.633
299.56	33.418
299.77	27.785
299.98	26.940
300.20	31.384
300.41	30.988
300.62	32.695
300.84	28.912
301.05	28.709
301.26	28.293
301.47	27.901
301.69	24.888
301.90	18.609
302.11	19.148
302.33	19.174
302.54	18.470
302.75	18.680
302.97	13.889
303.18	21.902
303.39	20.247
303.61	20.230
303.82	16.707
304.03	19.403
304.25	23.682
304.46	22.276
304.67	16.534
304.88	21.203
305.10	19.054
305.31	18.898
305.52	13.381
305.74	17.867
305.95	17.065
306.16	20.220
306.38	17.540
306.59	17.114
306.80	18.832
307.01	20.047
307.23	13.256
307.44	10.888
307.65	17.380
307.87	20.252
308.08	20.380
308.29	18.945
308.50	17.267
308.72	16.458
308.93	13.813
309.14	12.822
309.36	12.964
309.57	18.393
309.78	21.109
309.99	14.087
310.21	9.425
310.42	4.261
310.63	5.158
310.84	8.193
311.06	9.363
311.27	14.060
311.48	18.355
311.70	16.182
311.91	15.026
312.12	14.230
312.33	17.899
312.55	24.188
312.76	28.920
312.97	23.720
313.18	22.635
313.40	26.153
313.61	20.622
313.82	17.800
314.03	17.532
314.25	15.809
314.46	17.931
314.67	11.789
314.88	7.968
315.10	4.228
315.31	6.850
315.52	5.745
315.73	4.798
315.95	7.190
316.16	10.052
316.37	14.925
316.58	12.961
316.80	12.465
317.01	16.674
317.22	12.333
317.43	13.618
317.64	15.435
317.86	23.077
318.07	19.313
318.28	26.280
318.49	23.785
318.71	28.542
318.92	28.995
319.13	26.784
319.34	25.551
319.55	28.235
319.77	31.025
319.98	25.846
320.19	19.314
320.40	22.382
320.62	17.301
320.83	17.068
321.04	14.902
321.25	14.385
321.46	16.030
321.68	18.432
321.89	21.198
322.10	18.794
322.31	18.864
322.52	18.526
322.74	17.652
322.95	16.522
323.16	18.946
323.37	18.785
323.58	22.676
323.80	18.338
324.01	15.637
324.22	17.754
324.43	19.481
324.64	23.551
324.86	25.650
325.07	24.085
325.28	22.062
325.49	21.142
325.70	18.747
325.91	10.286
326.13	15.764
326.34	15.221
326.55	8.236
326.76	8.912
326.97	12.371
327.18	14.878
327.40	16.785
327.61	23.235
327.82	24.031
328.03	23.270
328.24	29.839
328.45	28.433
328.67	32.014
328.88	36.913
329.09	35.534
329.30	33.531
329.51	27.114
329.72	29.000
329.94	31.622
330.15	31.166
330.36	31.306
330.57	32.597
330.78	30.827
330.99	28.427
331.21	24.181
331.42	23.989
331.63	23.457
331.84	24.310
332.05	25.421
332.26	22.980
332.47	20.245
332.69	20.645
332.90	18.372
333.11	21.605
333.32	29.956
333.53	35.037
333.74	36.044
333.95	36.291
334.16	40.694
334.38	39.159
334.59	36.093
334.80	37.139
335.01	37.084
335.22	38.248
335.43	37.966
335.64	33.082
335.85	29.104
336.07	28.904
336.28	26.033
336.49	23.668
336.70	21.349
336.91	21.011
337.12	27.162
337.33	28.257
337.54	30.263
337.76	29.834
337.97	30.447
338.18	32.715
338.39	32.000
338.60	37.772
338.81	35.494
339.02	41.316
339.23	38.819
339.44	35.113
339.65	34.912
339.87	31.817
340.08	30.830
340.29	30.200
340.50	31.376
340.71	31.365
340.92	29.364
341.13	31.307
341.34	30.085
341.55	32.117
341.76	27.124
341.97	26.184
342.19	26.215
342.40	25.604
342.61	21.488
342.82	19.633
343.03	20.086
343.24	16.604
343.45	15.880
343.66	12.543
343.87	13.667
344.08	15.571
344.29	18.659
344.50	13.911
344.71	15.651
344.93	23.052
345.14	26.368
345.35	26.497
345.56	29.373
345.77	27.179
345.98	25.054
346.19	20.568
346.40	24.171
346.61	18.918
346.82	23.521
347.03	23.513
347.24	20.842
347.45	13.695
347.66	11.751
347.87	10.400
348.08	11.981
348.29	17.277
348.50	22.601
348.71	16.685
348.93	20.553
349.14	21.223
349.35	19.946
349.56	20.129
349.77	23.608
349.98	23.209
350.19	23.241
350.40	22.779
350.61	21.982
350.82	24.292
351.03	26.901
351.24	26.669
351.45	26.585
351.66	26.536
351.87	23.239
352.08	22.042
352.29	23.154
352.50	21.160
352.71	23.163
352.92	22.783
353.13	19.518
353.34	22.727
353.55	23.707
353.76	22.912
353.97	23.003
354.18	26.819
354.39	25.708
354.60	25.823
354.81	26.056
355.02	25.989
355.23	26.702
355.44	25.356
355.65	19.354
355.86	16.963
356.07	17.937
356.28	18.012
356.49	17.266
356.70	18.514
356.91	16.959
357.12	17.896
357.33	16.273
357.54	15.055
357.75	17.642
357.96	19.930
358.17	21.198
358.38	19.006
358.59	20.554
358.80	19.316
359.01	20.116
359.22	21.235
359.43	21.510
359.64	21.091
359.85	19.372
360.06	19.396
360.27	20.164
360.48	18.807
360.69	18.258
360.90	18.790
361.11	18.118
361.32	16.727
361.53	16.254
361.74	17.546
361.95	18.826
362.16	20.270
362.37	18.086
362.58	19.020
362.79	20.394
362.99	21.694
363.20	19.773
363.41	20.606
363.62	21.831
363.83	22.298
364.04	23.273
364.25	20.644
364.46	21.179
364.67	22.332
364.88	21.492
365.09	19.814
365.30	19.039
365.51	20.446
365.72	21.070
365.93	18.313
366.14	15.945
366.35	14.021
366.56	15.357
366.76	15.454
366.97	18.718
367.18	17.448
367.39	17.572
367.60	18.373
367.81	16.773
368.02	16.540
368.23	17.850
368.44	20.356
368.65	19.976
368.86	20.697
369.07	21.714
369.28	20.785
369.48	19.565
369.69	17.921
369.90	18.685
370.11	17.812
370.32	19.349
370.53	18.914
370.74	17.517
370.95	15.116
371.16	18.319
371.37	18.399
371.58	17.435
371.78	20.091
371.99	22.485
372.20	22.469
372.41	19.956
372.62	17.485
372.83	20.022
373.04	21.525
373.25	22.575
373.46	18.646
373.67	18.311
373.87	17.739
374.08	17.595
374.29	17.121
374.50	15.651
374.71	20.327
374.92	24.501
375.13	23.284
375.34	24.718
375.55	25.738
375.75	26.827
375.96	26.084
376.17	25.396
376.38	22.672
376.59	22.477
376.80	23.678
377.01	21.278
377.21	16.188
377.42	13.479
377.63	11.586
377.84	11.322
378.05	13.793
378.26	14.142
378.47	14.813
378.68	16.349
378.88	18.738
379.09	19.216
379.30	20.103
379.51	19.361
379.72	19.451
379.93	20.716
380.14	19.669
380.34	17.039
380.55	15.399
380.76	16.518
380.97	15.658
381.18	13.979
381.39	13.721
381.59	13.231
381.80	15.378
382.01	18.347
382.22	16.096
382.43	17.107
382.64	17.944
382.84	19.068
383.05	20.354
383.26	20.979
383.47	21.574
383.68	18.815
383.89	18.953
384.09	20.055
384.30	19.468
384.51	20.442
384.72	19.847
384.93	17.949
385.14	18.840
385.34	17.779
385.55	18.788
385.76	19.346
385.97	18.443
386.18	19.781
386.38	16.810
386.59	16.537
386.80	13.520
387.01	14.774
387.22	15.551
387.42	13.192
387.63	11.798
387.84	10.338
388.05	7.550
388.26	8.538
388.46	8.697
388.67	11.318
388.88	10.407
389.09	12.032
389.30	13.431
389.50	14.341
389.71	16.851
389.92	15.936
390.13	16.051
390.34	16.771
390.54	16.989
390.75	14.567
390.96	14.301
391.17	14.948
391.37	15.578
391.58	13.965
391.79	13.634
392.00	10.117
392.21	10.951
392.41	10.376
392.62	11.724
392.83	12.173
393.04	12.719
393.24	11.894
393.45	12.337
393.66	13.488
393.87	12.586
394.07	10.288
394.28	12.984
394.49	12.305
394.70	12.218
394.91	9.937
395.11	12.101
395.32	13.054
395.53	12.933
395.74	13.111
395.94	12.617
396.15	12.336
396.36	15.025
396.57	13.612
396.77	16.733
396.98	18.046
397.19	18.020
397.40	16.840
397.60	16.513
397.81	18.737
398.02	20.108
398.22	20.943
398.43	21.773
398.64	20.630
398.85	20.813
399.05	17.623
399.26	17.231
399.47	18.058
399.68	17.628
399.88	18.981
400.09	18.167
400.30	15.762
400.50	15.298
400.71	16.773
400.92	15.079
401.13	15.717
401.33	16.992
401.54	16.400
401.75	15.370
401.95	15.756
402.16	14.189
402.37	12.981
402.58	13.282
402.78	14.178
402.99	14.439
403.20	14.800
403.40	15.577
403.61	15.788
403.82	15.836
404.03	16.352
404.23	16.611
404.44	17.099
404.65	18.523
404.85	17.815
405.06	16.767
405.27	14.777
405.47	16.456
405.68	15.537
405.89	14.629
406.09	15.176
406.30	15.790
406.51	16.842
406.71	16.788
406.92	15.886
407.13	17.908
407.34	16.300
407.54	17.687
407.75	17.628
407.96	18.058
408.16	18.809
408.37	19.211
408.58	20.050
408.78	18.950
408.99	19.135
409.20	20.690
409.40	18.107
409.61	20.151
409.82	19.622
410.02	19.935
410.23	19.058
410.44	20.268
410.64	20.977
410.85	19.907
411.05	19.271
411.26	18.834
411.47	16.637
411.67	18.474
411.88	19.969
412.09	20.383
412.29	19.267
412.50	19.820
412.71	19.012
412.91	16.518
413.12	17.188
413.33	17.109
413.53	18.055
413.74	20.717
413.94	19.627
414.15	18.236
414.36	17.108
414.56	17.038
414.77	18.075
414.98	17.251
415.18	17.392
415.39	17.506
415.59	18.492
415.80	17.668
416.01	16.511
416.21	16.131
416.42	15.618
416.63	16.729
416.83	15.987
417.04	15.752
417.24	15.095
417.45	17.402
417.66	16.650
417.86	14.903
418.07	15.328
418.27	14.128
418.48	13.821
418.69	14.376
418.89	15.084
419.10	15.777
419.30	15.759
419.51	16.178
419.72	15.002
419.92	15.706
420.13	16.154
420.33	16.046
420.54	16.161
420.75	16.102
420.95	15.560
421.16	15.252
421.36	15.450
421.57	15.602
421.78	15.475
421.98	15.054
422.19	15.030
422.39	15.201
422.60	14.551
422.80	14.654
423.01	14.961
423.22	14.620
423.42	13.991
423.63	14.267
423.83	13.384
424.04	13.716
424.24	14.450
424.45	14.452
424.66	14.778
424.86	15.267
425.07	14.696
425.27	14.511
425.48	14.694
425.68	14.024
425.89	13.621
426.10	13.533
426.30	13.324
426.51	13.516
426.71	12.492
426.92	11.606
427.12	10.341
427.33	11.331
427.53	11.190
427.74	11.992
427.94	12.528
428.15	12.533
428.36	11.731
428.56	12.145
428.77	12.175
428.97	12.277
429.18	12.801
429.38	14.011
429.59	15.204
429.79	16.003
430.00	14.973
430.20	16.521
430.41	16.025
430.61	17.249
430.82	17.714
431.02	17.504
431.23	17.026
431.43	17.312
431.64	17.495
431.84	17.223
432.05	17.520
432.26	17.053
432.46	15.097
432.67	15.016
432.87	15.113
433.08	14.038
433.28	13.905
433.49	14.824
433.69	15.023
433.90	15.239
434.10	14.110
434.31	14.068
434.51	15.511
434.72	16.128
434.92	16.887
435.13	16.748
435.33	17.883
435.54	18.051
435.74	18.278
435.95	18.552
436.15	18.678
436.36	19.416
436.56	19.187
436.76	18.743
436.97	19.345
437.17	18.779
437.38	19.612
437.58	18.482
437.79	18.511
437.99	17.410
438.20	17.313
438.40	17.612
438.61	17.738
438.81	18.068
439.02	17.905
439.22	17.280
439.43	17.184
439.63	15.607
439.84	14.739
440.04	14.725
440.24	15.132
440.45	13.751
440.65	13.066
440.86	13.940
441.06	13.403
441.27	13.824
441.47	14.492
441.68	14.211
441.88	15.133
442.09	16.361
442.29	15.994
442.49	16.011
442.70	17.781
442.90	17.162
443.11	15.354
443.31	15.954
443.52	15.228
443.72	14.235
443.93	14.647
444.13	15.098
444.33	14.478
444.54	13.864
444.74	14.276
444.95	14.040
445.15	14.008
445.36	14.369
445.56	13.442
445.76	13.734
445.97	13.440
446.17	13.904
446.38	13.704
446.58	14.256
446.79	14.202
446.99	13.676
447.19	13.126
447.40	13.903
447.60	14.184
447.81	15.216
448.01	15.182
448.21	15.589
448.42	14.508
448.62	13.917
448.83	14.580
449.03	15.466
449.23	16.062
449.44	15.804
449.64	15.680
449.85	15.004
450.05	14.875
450.25	14.587
450.46	14.482
450.66	14.983
450.87	16.078
451.07	15.424
451.27	14.888
451.48	14.887
451.68	15.431
451.88	14.935
452.09	15.477
452.29	15.229
452.50	15.571
452.70	15.335
452.90	14.541
453.11	14.445
453.31	13.262
453.51	14.279
453.72	14.117
453.92	13.395
454.13	13.597
454.33	13.391
454.53	13.597
454.74	12.921
454.94	13.418
455.14	14.677
455.35	14.338
455.55	15.399
455.75	13.711
455.96	13.871
456.16	13.951
456.37	13.685
456.57	13.799
456.77	13.820
456.98	14.469
457.18	15.050
457.38	14.883
457.59	14.811
457.79	13.368
457.99	14.860
458.20	14.815
458.40	15.517
458.60	15.900
458.81	15.813
459.01	14.774
459.21	14.213
459.42	13.345
459.62	13.682
459.82	13.659
460.03	14.878
460.23	14.501
460.43	14.816
460.64	14.750
460.84	14.841
461.04	15.561
461.25	15.671
461.45	16.549
461.65	16.414
461.86	16.019
462.06	16.136
462.26	15.311
462.46	15.462
462.67	15.197
462.87	15.387
463.07	15.032
463.28	14.271
463.48	14.245
463.68	14.147
463.89	15.527
464.09	15.244
464.29	14.149
464.49	14.776
464.70	15.269
464.90	15.355
465.10	14.465
465.31	14.333
465.51	13.574
465.71	14.061
