SpectraSuite Data File
++++++++++++++++++++++++++++++++++++
Date: Mon Jan 12 10:55:24 EST 2009
User: Lex
Dark Spectrum Present: Yes
Reference Spectrum Present: Yes
Number of Sampled Component Spectra: 1
Spectrometers: USB4E03001
Integration Time (usec): 100000 (USB4E03001)
Spectra Averaged: 5 (USB4E03001)
Boxcar Smoothing: 5 (USB4E03001)
Correct for Electrical Dark: No (USB4E03001)
Strobe/Lamp Enabled: Yes (USB4E03001)
Correct for Detector Non-linearity: No (USB4E03001)
Correct for Stray Light: No (USB4E03001)
Number of Pixels in Processed Spectrum: 3648
>>>>>Begin Processed Spectral Data<<<<<
177.57	-283.333
177.79	-283.333
178.01	-283.333
178.23	1100.000
178.45	-13.559
178.66	303.947
178.88	223.881
179.10	163.569
179.32	115.512
179.54	75.000
179.76	65.394
179.98	69.146
180.20	63.030
180.42	98.413
180.64	213.043
180.86	523.077
181.08	195.726
181.30	222.513
181.52	297.810
181.74	748.000
181.96	-2094.737
182.18	-668.571
182.40	-595.890
182.62	-2394.444
182.84	-635.000
183.06	2706.667
183.28	471.642
183.50	-180.952
183.72	-177.143
183.94	-179.365
184.16	269.737
184.38	-236.765
184.60	-400.000
184.82	676.744
185.04	8250.000
185.26	640.385
185.48	-1300.000
185.69	-393.333
185.91	-698.387
186.13	774.603
186.35	703.279
186.57	-711.321
186.79	241.667
187.01	398.571
187.23	-302.174
187.45	-97.170
187.67	-130.435
187.89	-344.086
188.11	457.143
188.33	510.345
188.55	-261.404
188.77	-1211.111
188.99	205.376
189.21	192.000
189.42	113.659
189.64	224.194
189.86	177.895
190.08	0.758
190.30	-57.647
190.52	-1175.000
190.74	67.021
190.96	112.121
191.18	-364.286
191.40	-11.475
191.62	-19.463
191.84	-46.729
192.06	-28.618
192.27	-99.134
192.49	-153.947
192.71	-749.123
192.93	-266.667
193.15	-69.307
193.37	-84.865
193.59	-116.522
193.81	-181.111
194.03	-257.534
194.25	-70.435
194.47	2750.000
194.68	-131.343
194.90	-2.000
195.12	-20.301
195.34	465.789
195.56	373.611
195.78	546.552
196.00	332.000
196.22	155.897
196.44	123.129
196.66	118.750
196.87	110.638
197.09	89.683
197.31	111.304
197.53	-91.667
197.75	-566.667
197.97	-130.769
198.19	195.652
198.41	52.941
198.63	8.475
198.84	-173.810
199.06	-50.000
199.28	-11.640
199.50	-79.444
199.72	-139.264
199.94	-586.792
200.16	-73.881
200.38	-76.014
200.59	-178.571
200.81	-139.502
201.03	-239.500
201.25	-168.340
201.47	-818.056
201.69	942.254
201.91	414.368
202.13	284.774
202.34	399.476
202.56	256.187
202.78	213.105
203.00	243.529
203.22	186.139
203.44	187.633
203.66	197.173
203.87	216.766
204.09	329.310
204.31	3220.000
204.53	-868.966
204.75	342.857
204.97	327.160
205.19	1506.250
205.40	1690.000
205.62	920.833
205.84	341.935
206.06	-1440.000
206.28	246.763
206.50	535.385
206.71	231.892
206.93	171.556
207.15	263.953
207.37	340.517
207.59	258.974
207.81	200.426
208.02	177.083
208.24	149.869
208.46	141.499
208.68	159.517
208.90	133.000
209.12	182.095
209.33	244.978
209.55	161.890
209.77	168.802
209.99	150.714
210.21	179.439
210.43	192.830
210.64	253.763
210.86	208.922
211.08	517.500
211.30	830.612
211.52	506.944
211.74	408.163
211.95	688.679
212.17	326.744
212.39	183.333
212.61	108.397
212.83	96.392
213.04	161.017
213.26	176.623
213.48	190.400
213.70	141.139
213.92	112.698
214.13	65.877
214.35	92.308
214.57	111.864
214.79	-2209.091
215.01	-242.353
215.22	-1025.000
215.44	360.630
215.66	496.429
215.88	320.690
216.10	1092.105
216.31	-546.032
216.53	-258.594
216.75	-169.231
216.97	-133.632
217.19	-298.182
217.40	-1496.429
217.62	-400.000
217.84	-112.346
218.06	-123.684
218.27	-86.316
218.49	-146.729
218.71	-1652.941
218.93	-903.333
219.15	-2490.000
219.36	-471.667
219.58	-618.367
219.80	4214.286
220.02	176.613
220.23	149.794
220.45	118.565
220.67	98.030
220.89	159.627
221.11	315.000
221.32	3260.000
221.54	-85.345
221.76	1341.667
221.98	305.634
222.19	-238.889
222.41	-567.857
222.63	-156.180
222.85	-507.692
223.06	-1327.778
223.28	-1225.000
223.50	-289.691
223.72	-788.636
223.93	701.389
224.15	713.433
224.37	-1188.571
224.59	-3476.923
224.80	-1056.410
225.02	-606.897
225.24	-168.590
225.46	-46.970
225.67	-130.636
225.89	6150.000
226.11	552.055
226.33	447.692
226.54	803.846
226.76	340.187
226.98	1270.588
227.20	1224.242
227.41	326.623
227.63	427.612
227.85	267.658
228.06	175.303
228.28	175.689
228.50	161.905
228.72	168.108
228.93	153.297
229.15	128.615
229.37	99.040
229.59	85.548
229.80	88.313
230.02	80.022
230.24	84.597
230.45	100.000
230.67	90.462
230.89	85.620
231.11	93.002
231.32	75.820
231.54	115.130
231.76	118.163
231.97	190.173
232.19	172.238
232.41	163.978
232.63	223.913
232.84	132.727
233.06	145.349
233.28	166.159
233.49	136.391
233.71	148.930
233.93	105.825
234.14	109.743
234.36	69.534
234.58	74.085
234.79	86.667
235.01	83.901
235.23	93.614
235.45	96.692
235.66	75.273
235.88	82.158
236.10	71.609
236.31	81.443
236.53	134.354
236.75	290.196
236.96	671.429
237.18	633.333
237.40	445.283
237.61	-452.000
237.83	-1400.000
238.05	-651.282
238.26	-520.588
238.48	2035.294
238.70	185.593
238.91	115.315
239.13	137.885
239.35	83.849
239.56	110.317
239.78	309.091
240.00	-47.253
240.21	23.810
240.43	62.278
240.65	78.010
240.86	48.417
241.08	41.138
241.30	39.590
241.51	56.698
241.73	66.862
241.95	59.397
242.16	52.617
242.38	58.205
242.60	42.655
242.81	35.247
243.03	23.410
243.25	21.197
243.46	21.830
243.68	34.971
243.90	21.635
244.11	15.979
244.33	7.860
244.55	14.624
244.76	12.949
244.98	26.103
245.19	22.518
245.41	21.027
245.63	23.734
245.84	23.598
246.06	8.795
246.28	5.137
246.49	6.607
246.71	6.068
246.92	6.139
247.14	4.653
247.36	5.278
247.57	10.598
247.79	17.707
248.01	16.482
248.22	20.146
248.44	19.593
248.65	21.293
248.87	16.839
249.09	25.122
249.30	25.548
249.52	30.143
249.74	26.604
249.95	20.364
250.17	21.031
250.38	27.817
250.60	29.175
250.82	41.341
251.03	43.238
251.25	50.756
251.46	46.490
251.68	44.883
251.90	44.609
252.11	36.983
252.33	37.521
252.54	30.697
252.76	36.945
252.98	35.556
253.19	29.305
253.41	44.133
253.62	43.105
253.84	35.580
254.06	23.404
254.27	7.712
254.49	11.448
254.70	25.641
254.92	34.884
255.14	12.556
255.35	-4.896
255.57	4.147
255.78	-19.152
256.00	-17.524
256.21	-19.174
256.43	10.544
256.65	26.286
256.86	23.096
257.08	15.350
257.29	6.553
257.51	11.593
257.72	13.490
257.94	7.628
258.16	9.637
258.37	3.048
258.59	12.925
258.80	11.779
259.02	8.002
259.23	9.170
259.45	6.649
259.66	3.897
259.88	5.821
260.10	13.012
260.31	13.279
260.53	15.211
260.74	15.196
260.96	12.394
261.17	11.272
261.39	13.873
261.60	12.163
261.82	16.667
262.04	23.513
262.25	26.092
262.47	22.377
262.68	29.484
262.90	29.180
263.11	38.293
263.33	34.362
263.54	31.082
263.76	30.403
263.97	31.100
264.19	36.610
264.40	41.730
264.62	40.064
264.84	25.795
265.05	25.576
265.27	24.625
265.48	25.686
265.70	25.752
265.91	34.972
266.13	40.827
266.34	47.029
266.56	36.202
266.77	32.919
266.99	28.505
267.20	31.932
267.42	30.064
267.63	27.661
267.85	25.611
268.06	22.201
268.28	12.168
268.49	1.739
268.71	1.703
268.92	-0.602
269.14	1.170
269.35	5.627
269.57	11.283
269.78	5.792
270.00	1.918
270.21	-1.000
270.43	9.006
270.64	15.462
270.86	14.410
271.07	19.214
271.29	14.970
271.50	12.414
271.72	14.014
271.93	5.761
272.15	3.207
272.36	4.610
272.58	4.172
272.79	-2.128
273.01	-7.023
273.22	-4.240
273.44	-20.253
273.65	-7.555
273.87	-4.436
274.08	-5.887
274.30	10.954
274.51	13.876
274.73	17.826
274.94	28.129
275.16	32.191
275.37	33.927
275.59	36.191
275.80	36.123
276.01	26.852
276.23	29.548
276.44	33.182
276.66	24.790
276.87	24.767
277.09	27.236
277.30	22.910
277.52	23.618
277.73	20.926
277.95	23.174
278.16	28.994
278.38	34.918
278.59	31.965
278.80	26.670
279.02	27.622
279.23	32.749
279.45	32.499
279.66	32.471
279.88	33.952
280.09	36.621
280.31	29.451
280.52	20.539
280.73	22.254
280.95	23.426
281.16	27.337
281.38	23.403
281.59	20.315
281.81	18.733
282.02	15.118
282.24	12.017
282.45	8.107
282.66	9.880
282.88	15.467
283.09	16.101
283.31	21.593
283.52	20.000
283.74	20.956
283.95	18.138
284.16	25.326
284.38	27.732
284.59	26.576
284.81	26.758
285.02	27.438
285.23	31.665
285.45	29.764
285.66	26.393
285.88	27.424
286.09	29.732
286.31	32.584
286.52	25.686
286.73	26.564
286.95	27.612
287.16	28.723
287.38	28.252
287.59	24.478
287.80	26.813
288.02	23.981
288.23	19.380
288.45	22.808
288.66	26.358
288.87	30.565
289.09	27.692
289.30	25.916
289.52	26.623
289.73	25.481
289.94	27.102
290.16	27.610
290.37	29.811
290.58	30.649
290.80	22.763
291.01	18.510
291.23	16.136
291.44	17.862
291.65	19.551
291.87	18.677
292.08	22.862
292.29	21.626
292.51	19.839
292.72	18.989
292.94	21.109
293.15	29.283
293.36	29.663
293.58	26.777
293.79	28.200
294.00	27.646
294.22	24.643
294.43	23.234
294.65	19.274
294.86	13.859
295.07	13.953
295.29	11.107
295.50	5.525
295.71	6.297
295.93	6.262
296.14	7.834
296.35	5.655
296.57	8.437
296.78	5.459
296.99	8.482
297.21	9.437
297.42	8.347
297.63	13.849
297.85	15.415
298.06	16.844
298.28	20.106
298.49	17.395
298.70	15.693
298.92	15.132
299.13	13.778
299.34	11.905
299.56	14.966
299.77	17.044
299.98	16.164
300.20	19.809
300.41	21.440
300.62	22.324
300.84	24.794
301.05	30.721
301.26	31.470
301.47	37.984
301.69	37.678
301.90	37.760
302.11	34.168
302.33	32.043
302.54	31.121
302.75	26.661
302.97	23.545
303.18	18.847
303.39	14.659
303.61	15.724
303.82	2.728
304.03	4.141
304.25	-0.185
304.46	5.580
304.67	3.091
304.88	0.490
305.10	0.138
305.31	2.150
305.52	2.857
305.74	2.262
305.95	-0.271
306.16	10.441
306.38	7.416
306.59	11.610
306.80	6.262
307.01	8.235
307.23	9.395
307.44	2.795
307.65	6.026
307.87	11.106
308.08	19.928
308.29	24.222
308.50	19.420
308.72	23.869
308.93	19.616
309.14	26.050
309.36	26.241
309.57	28.259
309.78	29.240
309.99	25.235
310.21	21.852
310.42	16.217
310.63	12.939
310.84	17.525
311.06	13.025
311.27	21.687
311.48	19.776
311.70	16.704
311.91	16.958
312.12	20.195
312.33	25.728
312.55	24.618
312.76	26.478
312.97	23.600
313.18	22.231
313.40	27.991
313.61	24.427
313.82	23.971
314.03	25.991
314.25	23.590
314.46	25.103
314.67	18.846
314.88	19.775
315.10	19.154
315.31	24.603
315.52	23.564
315.73	20.467
315.95	15.948
316.16	19.012
316.37	20.172
316.58	19.773
316.80	19.935
317.01	18.684
317.22	17.476
317.43	14.157
317.64	9.542
317.86	13.933
318.07	10.453
318.28	18.012
318.49	17.954
318.71	17.826
318.92	15.929
319.13	10.804
319.34	14.795
319.55	18.284
319.77	23.232
319.98	20.298
320.19	14.694
320.40	18.497
320.62	13.711
320.83	15.209
321.04	13.396
321.25	13.607
321.46	16.576
321.68	15.207
321.89	16.344
322.10	8.494
322.31	8.944
322.52	9.710
322.74	10.449
322.95	12.652
323.16	12.065
323.37	15.276
323.58	21.302
323.80	17.601
324.01	18.916
324.22	18.642
324.43	24.439
324.64	24.291
324.86	28.948
325.07	27.669
325.28	27.704
325.49	30.579
325.70	27.735
325.91	23.185
326.13	29.120
326.34	28.173
326.55	25.498
326.76	27.997
326.97	30.088
327.18	29.634
327.40	30.700
327.61	33.508
327.82	28.127
328.03	28.358
328.24	31.989
328.45	31.634
328.67	31.835
328.88	33.123
329.09	35.012
329.30	35.907
329.51	33.113
329.72	31.824
329.94	31.382
330.15	34.667
330.36	36.200
330.57	35.369
330.78	32.057
330.99	37.443
331.21	33.302
331.42	30.653
331.63	36.081
331.84	32.725
332.05	37.125
332.26	36.885
332.47	30.413
332.69	26.815
332.90	27.936
333.11	30.716
333.32	31.530
333.53	34.762
333.74	33.677
333.95	28.256
334.16	32.238
334.38	25.258
334.59	24.012
334.80	31.539
335.01	36.115
335.22	37.311
335.43	40.570
335.64	35.190
335.85	37.814
336.07	38.037
336.28	36.807
336.49	39.471
336.70	41.214
336.91	37.649
337.12	38.311
337.33	36.046
337.54	33.879
337.76	28.716
337.97	32.664
338.18	29.189
338.39	28.142
338.60	31.202
338.81	25.018
339.02	27.444
339.23	29.041
339.44	27.560
339.65	28.481
339.87	26.908
340.08	26.903
340.29	23.571
340.50	25.954
340.71	25.137
340.92	27.712
341.13	28.585
341.34	27.390
341.55	29.532
341.76	26.232
341.97	27.223
342.19	27.796
342.40	26.828
342.61	25.483
342.82	25.077
343.03	28.778
343.24	23.204
343.45	24.127
343.66	23.558
343.87	22.495
344.08	22.692
344.29	20.680
344.50	18.204
344.71	18.067
344.93	24.301
345.14	24.409
345.35	23.958
345.56	24.362
345.77	23.692
345.98	20.325
346.19	18.348
346.40	17.509
346.61	17.836
346.82	19.601
347.03	20.267
347.24	12.936
347.45	10.948
347.66	6.999
347.87	9.215
348.08	9.996
348.29	16.043
348.50	21.378
348.71	21.239
348.93	23.208
349.14	24.385
349.35	25.377
349.56	27.950
349.77	28.309
349.98	29.903
350.19	26.017
350.40	26.494
350.61	24.238
350.82	24.569
351.03	28.409
351.24	27.949
351.45	27.121
351.66	25.079
351.87	25.339
352.08	26.194
352.29	28.275
352.50	31.039
352.71	30.572
352.92	29.803
353.13	26.715
353.34	24.551
353.55	23.962
353.76	24.335
353.97	25.133
354.18	25.546
354.39	22.466
354.60	21.399
354.81	22.010
355.02	21.488
355.23	22.248
355.44	20.335
355.65	21.165
355.86	19.415
356.07	21.926
356.28	22.312
356.49	24.388
356.70	27.028
356.91	24.756
357.12	24.683
357.33	25.579
357.54	24.056
357.75	24.965
357.96	24.148
358.17	26.155
358.38	23.291
358.59	23.507
358.80	21.358
359.01	20.406
359.22	20.149
359.43	21.106
359.64	21.712
359.85	20.632
360.06	21.736
360.27	20.359
360.48	18.621
360.69	18.258
360.90	17.409
361.11	15.253
361.32	13.524
361.53	14.005
361.74	16.052
361.95	14.575
362.16	17.833
362.37	16.292
362.58	18.463
362.79	19.961
362.99	20.396
363.20	19.955
363.41	24.075
363.62	27.058
363.83	27.867
364.04	26.131
364.25	26.497
364.46	24.543
364.67	25.236
364.88	24.099
365.09	20.070
365.30	20.516
365.51	21.982
365.72	18.835
365.93	17.850
366.14	18.427
366.35	17.222
366.56	17.933
366.76	17.605
366.97	18.821
367.18	19.129
367.39	21.559
367.60	22.098
367.81	23.104
368.02	24.139
368.23	22.584
368.44	20.908
368.65	22.072
368.86	19.632
369.07	22.918
369.28	21.749
369.48	18.197
369.69	16.776
369.90	15.288
370.11	14.111
370.32	14.411
370.53	13.811
370.74	14.535
370.95	13.657
371.16	15.322
371.37	13.357
371.58	13.826
371.78	17.813
371.99	19.746
372.20	20.575
372.41	20.356
372.62	20.724
372.83	23.212
373.04	24.888
373.25	24.188
373.46	25.368
373.67	26.198
373.87	25.042
374.08	23.572
374.29	23.964
374.50	22.812
374.71	22.713
374.92	21.420
375.13	18.202
375.34	16.543
375.55	16.175
375.75	13.028
375.96	13.692
376.17	17.252
376.38	13.966
376.59	14.112
376.80	15.800
377.01	15.295
377.21	13.120
377.42	13.734
377.63	12.571
377.84	15.734
378.05	18.040
378.26	17.624
378.47	16.086
378.68	19.074
378.88	18.223
379.09	17.153
379.30	16.972
379.51	19.927
379.72	21.011
379.93	22.201
380.14	20.941
380.34	19.661
380.55	17.506
380.76	17.160
380.97	17.307
381.18	18.072
381.39	18.377
381.59	19.243
381.80	19.591
382.01	20.800
382.22	20.919
382.43	19.790
382.64	19.469
382.84	22.464
383.05	22.080
383.26	21.390
383.47	21.289
383.68	20.783
383.89	19.594
384.09	19.395
384.30	18.892
384.51	18.232
384.72	17.653
384.93	17.533
385.14	17.484
385.34	16.963
385.55	18.056
385.76	18.415
385.97	18.734
386.18	21.463
386.38	21.808
386.59	20.861
386.80	18.920
387.01	22.364
387.22	22.973
387.42	22.381
387.63	24.939
387.84	23.206
388.05	22.076
388.26	20.207
388.46	17.862
388.67	18.486
388.88	17.990
389.09	18.076
389.30	17.321
389.50	16.479
389.71	17.507
389.92	14.764
390.13	15.976
390.34	15.081
390.54	15.326
390.75	14.961
390.96	15.442
391.17	15.459
391.37	17.471
391.58	15.867
391.79	18.033
392.00	16.571
392.21	16.984
392.41	15.390
392.62	15.301
392.83	15.101
393.04	13.343
393.24	13.225
393.45	14.624
393.66	15.663
393.87	14.102
394.07	11.616
394.28	12.470
394.49	12.661
394.70	12.168
394.91	12.893
395.11	14.854
395.32	17.975
395.53	15.509
395.74	14.417
395.94	12.833
396.15	12.958
396.36	13.745
396.57	13.401
396.77	15.557
396.98	17.720
397.19	16.860
397.40	17.263
397.60	17.629
397.81	19.019
398.02	19.446
398.22	20.909
398.43	21.668
398.64	22.376
398.85	20.038
399.05	19.142
399.26	18.183
399.47	19.853
399.68	17.917
399.88	17.148
400.09	17.057
400.30	15.726
400.50	13.311
400.71	15.325
400.92	13.788
401.13	13.386
401.33	12.819
401.54	14.217
401.75	14.024
401.95	15.025
402.16	14.307
402.37	13.445
402.58	13.097
402.78	14.295
402.99	12.775
403.20	12.547
403.40	13.823
403.61	14.611
403.82	13.496
404.03	11.682
404.23	12.583
404.44	14.070
404.65	15.189
404.85	15.279
405.06	13.606
405.27	14.439
405.47	16.947
405.68	17.131
405.89	14.374
406.09	15.070
406.30	15.775
406.51	15.281
406.71	13.800
406.92	13.916
407.13	15.652
407.34	16.332
407.54	18.267
407.75	16.648
407.96	16.910
408.16	18.206
408.37	17.984
408.58	18.070
408.78	17.978
408.99	19.351
409.20	18.230
409.40	16.444
409.61	16.961
409.82	12.706
410.02	13.158
410.23	12.321
410.44	13.667
410.64	14.024
410.85	13.577
411.05	12.518
411.26	11.294
411.47	11.210
411.67	12.884
411.88	14.588
412.09	17.354
412.29	18.211
412.50	18.932
412.71	18.463
412.91	17.335
413.12	18.574
413.33	19.005
413.53	20.194
413.74	21.431
413.94	21.636
414.15	21.669
414.36	20.746
414.56	20.343
414.77	20.205
414.98	18.472
415.18	18.833
415.39	17.990
415.59	18.636
415.80	18.239
416.01	17.565
416.21	16.014
416.42	14.183
416.63	13.477
416.83	13.496
417.04	12.835
417.24	13.562
417.45	13.354
417.66	14.071
417.86	13.524
418.07	12.344
418.27	12.445
418.48	12.825
418.69	14.145
418.89	14.878
419.10	14.437
419.30	15.338
419.51	15.736
419.72	15.540
419.92	15.697
420.13	16.774
420.33	17.037
420.54	16.549
420.75	17.350
420.95	16.495
421.16	15.999
421.36	15.772
421.57	15.804
421.78	15.655
421.98	15.193
422.19	15.183
422.39	14.999
422.60	14.959
422.80	14.932
423.01	13.688
423.22	13.465
423.42	13.418
423.63	13.666
423.83	12.825
424.04	13.299
424.24	14.059
424.45	14.368
424.66	13.702
424.86	13.752
425.07	13.512
425.27	13.868
425.48	14.362
425.68	13.940
425.89	13.378
426.10	13.372
426.30	12.858
426.51	13.016
426.71	10.789
426.92	10.351
427.12	10.791
427.33	11.715
427.53	11.015
427.74	12.149
427.94	12.571
428.15	13.044
428.36	12.764
428.56	14.210
428.77	15.034
428.97	16.711
429.18	17.621
429.38	17.959
429.59	18.584
429.79	20.435
430.00	17.888
430.20	19.333
430.41	18.882
430.61	19.898
430.82	20.185
431.02	19.648
431.23	19.227
431.43	19.403
431.64	19.420
431.84	18.932
432.05	17.647
432.26	18.944
432.46	16.216
432.67	17.690
432.87	17.532
433.08	15.771
433.28	15.405
433.49	15.978
433.69	15.677
433.90	16.064
434.10	15.329
434.31	16.452
434.51	16.803
434.72	18.295
434.92	17.551
435.13	17.435
435.33	18.173
435.54	18.814
435.74	18.187
435.95	17.668
436.15	17.508
436.36	19.031
436.56	19.127
436.76	18.905
436.97	19.466
437.17	19.357
437.38	19.452
437.58	18.659
437.79	17.653
437.99	18.013
438.20	19.050
438.40	19.450
438.61	19.367
438.81	19.109
439.02	18.674
439.22	17.066
439.43	16.934
439.63	16.762
439.84	16.492
440.04	16.961
440.24	16.612
440.45	15.819
440.65	14.559
440.86	14.147
441.06	13.912
441.27	14.077
441.47	15.593
441.68	16.039
441.88	16.348
442.09	17.580
442.29	16.795
442.49	16.235
442.70	16.967
442.90	17.050
443.11	16.668
443.31	17.149
443.52	16.725
443.72	15.501
443.93	14.830
444.13	15.089
444.33	13.823
444.54	14.020
444.74	15.197
444.95	14.989
445.15	15.183
445.36	15.553
445.56	15.194
445.76	14.980
445.97	15.334
446.17	15.735
446.38	15.939
446.58	15.897
446.79	15.914
446.99	15.745
447.19	15.923
447.40	16.038
447.60	16.021
447.81	16.603
448.01	16.636
448.21	15.856
448.42	15.458
448.62	14.430
448.83	15.804
449.03	16.406
449.23	17.024
449.44	16.617
449.64	16.159
449.85	15.669
450.05	14.564
450.25	14.781
450.46	16.042
450.66	15.466
450.87	16.344
451.07	15.156
451.27	15.309
451.48	14.544
451.68	15.234
451.88	15.290
452.09	15.829
452.29	16.078
452.50	16.328
452.70	16.400
452.90	16.587
453.11	15.999
453.31	15.660
453.51	15.451
453.72	15.818
453.92	14.464
454.13	14.928
454.33	14.604
454.53	14.853
454.74	14.290
454.94	13.243
455.14	14.596
455.35	14.460
455.55	14.965
455.75	15.651
455.96	15.632
456.16	15.400
456.37	15.350
456.57	14.367
456.77	15.342
456.98	15.664
457.18	16.116
457.38	14.759
457.59	15.001
457.79	13.889
457.99	12.909
458.20	12.862
458.40	13.513
458.60	14.011
458.81	14.451
459.01	13.286
459.21	13.789
459.42	13.916
459.62	14.930
459.82	13.910
460.03	14.406
460.23	14.887
460.43	15.522
460.64	15.294
460.84	15.062
461.04	16.116
461.25	16.534
461.45	16.188
461.65	15.893
461.86	15.066
462.06	16.225
462.26	15.701
462.46	15.810
462.67	14.011
462.87	15.009
463.07	16.024
463.28	14.751
463.48	13.991
463.68	14.387
463.89	15.904
464.09	15.753
464.29	15.459
464.49	16.756
464.70	16.583
464.90	18.426
465.10	17.895
465.31	16.024
465.51	15.351
465.71	15.604
465.92	15.143
466.12	14.025
