SpectraSuite Data File
++++++++++++++++++++++++++++++++++++
Date: Mon Jan 12 10:55:26 EST 2009
User: Lex
Dark Spectrum Present: Yes
Reference Spectrum Present: Yes
Number of Sampled Component Spectra: 1
Spectrometers: USB4E03001
Integration Time (usec): 100000 (USB4E03001)
Spectra Averaged: 5 (USB4E03001)
Boxcar Smoothing: 5 (USB4E03001)
Correct for Electrical Dark: No (USB4E03001)
Strobe/Lamp Enabled: Yes (USB4E03001)
Correct for Detector Non-linearity: No (USB4E03001)
Correct for Stray Light: No (USB4E03001)
Number of Pixels in Processed Spectrum: 3648
>>>>>Begin Processed Spectral Data<<<<<
177.57	-136.667
177.79	-136.667
178.01	-136.667
178.23	550.000
178.45	-79.661
178.66	251.974
178.88	214.925
179.10	160.223
179.32	159.406
179.54	106.701
179.76	114.797
179.98	137.741
180.20	150.000
180.42	128.889
180.64	290.217
180.86	776.923
181.08	219.658
181.30	224.084
181.52	317.518
181.74	740.000
181.96	-2194.737
182.18	-617.143
182.40	-450.685
182.62	-1905.556
182.84	-606.667
183.06	3093.333
183.28	647.761
183.50	-354.762
183.72	-457.143
183.94	-485.714
184.16	319.737
184.38	-382.353
184.60	-531.373
184.82	760.465
185.04	8350.000
185.26	661.538
185.48	-1350.000
185.69	-194.667
185.91	-401.613
186.13	600.000
186.35	709.836
186.57	-924.528
186.79	373.485
187.01	690.000
187.23	-932.609
187.45	-303.774
187.67	-231.159
187.89	-464.516
188.11	677.922
188.33	1300.000
188.55	-619.298
188.77	-3433.333
188.99	315.054
189.21	237.600
189.42	169.268
189.64	279.839
189.86	400.000
190.08	317.424
190.30	375.294
190.52	7425.000
190.74	265.426
190.96	419.697
191.18	-578.571
191.40	-83.060
191.62	-50.336
191.84	-68.847
192.06	-75.658
192.27	-83.117
192.49	-70.614
192.71	-475.439
192.93	-183.721
193.15	-9.901
193.37	-72.973
193.59	-196.522
193.81	-333.333
194.03	-358.904
194.25	-133.043
194.47	3700.000
194.68	-317.910
194.90	-252.000
195.12	-124.812
195.34	692.105
195.56	584.722
195.78	798.276
196.00	409.000
196.22	248.718
196.44	374.830
196.66	449.219
196.87	612.766
197.09	485.714
197.31	551.304
197.53	-4300.000
197.75	7816.667
197.97	1700.000
198.19	-823.913
198.41	-691.176
198.63	-254.237
198.84	-1066.667
199.06	-299.138
199.28	-130.159
199.50	-158.889
199.72	-263.190
199.94	-841.509
200.16	-142.910
200.38	-139.527
200.59	-208.482
200.81	-150.534
201.03	-236.500
201.25	-162.162
201.47	-722.222
201.69	867.606
201.91	372.414
202.13	213.580
202.34	276.440
202.56	162.207
202.78	133.048
203.00	116.863
203.22	49.505
203.44	40.636
203.66	71.025
203.87	57.485
204.09	83.621
204.31	100.000
204.53	-572.414
204.75	502.381
204.97	377.778
205.19	1212.500
205.40	2770.000
205.62	1566.667
205.84	538.710
206.06	-2200.000
206.28	372.662
206.50	852.308
206.71	318.919
206.93	204.444
207.15	251.744
207.37	309.483
207.59	283.333
207.81	198.298
208.02	177.083
208.24	142.298
208.46	110.951
208.68	55.589
208.90	42.250
209.12	74.662
209.33	130.131
209.55	85.976
209.77	124.791
209.99	109.286
210.21	128.972
210.43	162.264
210.64	215.054
210.86	188.104
211.08	748.750
211.30	1181.633
211.52	759.722
211.74	518.367
211.95	1001.887
212.17	476.744
212.39	402.778
212.61	186.641
212.83	166.495
213.04	435.593
213.26	415.584
213.48	269.600
213.70	217.089
213.92	147.619
214.13	163.981
214.35	170.940
214.57	225.989
214.79	-3463.636
215.01	-322.353
215.22	-1465.625
215.44	426.772
215.66	603.571
215.88	322.759
216.10	1089.474
216.31	-760.317
216.53	-212.500
216.75	-121.302
216.97	-96.861
217.19	-231.818
217.40	-1607.143
217.62	-488.889
217.84	-216.667
218.06	-178.947
218.27	-154.211
218.49	-291.589
218.71	-1223.529
218.93	-1093.333
219.15	-3170.000
219.36	-411.667
219.58	-418.367
219.80	3685.714
220.02	113.710
220.23	88.066
220.45	88.608
220.67	76.847
220.89	70.186
221.11	192.500
221.32	1980.000
221.54	-57.759
221.76	1475.000
221.98	273.239
222.19	-11.111
222.41	-171.429
222.63	-70.225
222.85	-106.410
223.06	-261.111
223.28	-162.500
223.50	-57.732
223.72	-204.545
223.93	237.500
224.15	319.403
224.37	-631.429
224.59	-2415.385
224.80	-748.718
225.02	-275.862
225.24	-129.487
225.46	-36.869
225.67	-73.988
225.89	2016.667
226.11	289.041
226.33	306.154
226.54	217.308
226.76	111.215
226.98	397.059
227.20	287.879
227.41	120.779
227.63	149.254
227.85	121.190
228.06	92.010
228.28	94.737
228.50	72.024
228.72	65.045
228.93	77.473
229.15	68.923
229.37	43.621
229.59	41.375
229.80	40.723
230.02	42.634
230.24	54.152
230.45	61.790
230.67	63.584
230.89	65.950
231.11	83.978
231.32	69.257
231.54	49.409
231.76	64.092
231.97	97.688
232.19	130.595
232.41	124.731
232.63	113.478
232.84	76.970
233.06	92.151
233.28	124.695
233.49	81.957
233.71	79.817
233.93	80.000
234.14	80.882
234.36	61.224
234.58	46.706
234.79	39.394
235.01	55.347
235.23	62.530
235.45	57.761
235.66	39.208
235.88	53.112
236.10	58.833
236.31	67.526
236.53	80.612
236.75	104.902
236.96	238.095
237.18	233.333
237.40	35.849
237.61	74.000
237.83	250.000
238.05	238.462
238.26	438.235
238.48	-970.588
238.70	-29.661
238.91	-40.991
239.13	4.405
239.35	-26.117
239.56	-79.365
239.78	-1109.091
240.00	-95.604
240.21	-66.667
240.43	56.584
240.65	65.183
240.86	67.412
241.08	68.490
241.30	53.925
241.51	46.417
241.73	56.452
241.95	49.849
242.16	50.321
242.38	46.872
242.60	43.205
242.81	39.774
243.03	35.199
243.25	32.974
243.46	32.221
243.68	36.898
243.90	36.690
244.11	34.021
244.33	33.188
244.55	29.454
244.76	32.987
244.98	39.798
245.19	35.210
245.41	30.523
245.63	30.775
245.84	27.291
246.06	23.648
246.28	22.125
246.49	22.654
246.71	21.622
246.92	21.857
247.14	22.129
247.36	20.339
247.57	25.444
247.79	27.353
248.01	27.470
248.22	35.282
248.44	34.092
248.65	35.204
248.87	31.930
249.09	36.534
249.30	35.903
249.52	38.583
249.74	40.283
249.95	38.800
250.17	45.602
250.38	45.464
250.60	42.072
250.82	48.138
251.03	45.354
251.25	51.733
251.46	55.150
251.68	62.926
251.90	65.282
252.11	51.794
252.33	53.373
252.54	42.090
252.76	50.379
252.98	49.101
253.19	45.668
253.41	51.506
253.62	49.745
253.84	41.328
254.06	39.082
254.27	22.222
254.49	42.621
254.70	42.692
254.92	55.692
255.14	31.000
255.35	19.706
255.57	25.806
255.78	24.350
256.00	27.677
256.21	29.056
256.43	29.592
256.65	27.970
256.86	29.456
257.08	21.828
257.29	14.910
257.51	34.213
257.72	35.509
257.94	27.242
258.16	19.115
258.37	17.230
258.59	13.956
258.80	16.608
259.02	20.462
259.23	16.545
259.45	13.521
259.66	14.343
259.88	12.351
260.10	11.473
260.31	14.368
260.53	16.358
260.74	15.307
260.96	18.150
261.17	16.680
261.39	16.303
261.60	13.441
261.82	17.945
262.04	21.931
262.25	21.231
262.47	29.882
262.68	28.868
262.90	27.632
263.11	33.046
263.33	25.878
263.54	26.457
263.76	33.919
263.97	34.800
264.19	36.045
264.40	26.972
264.62	33.727
264.84	22.379
265.05	27.535
265.27	24.750
265.48	26.125
265.70	26.553
265.91	21.078
266.13	11.781
266.34	13.922
266.56	11.053
266.77	12.974
266.99	2.311
267.20	11.431
267.42	10.367
267.63	8.298
267.85	3.117
268.06	0.373
268.28	-0.823
268.49	3.865
268.71	3.027
268.92	3.410
269.14	-1.267
269.35	-3.949
269.57	-8.613
269.78	-6.356
270.00	-1.998
270.21	-2.615
270.43	3.602
270.64	0.201
270.86	2.869
271.07	3.805
271.29	7.126
271.50	8.715
271.72	17.762
271.93	11.709
272.15	6.222
272.36	7.376
272.58	10.920
272.79	6.770
273.01	11.304
273.22	10.565
273.44	10.047
273.65	12.673
273.87	16.420
274.08	15.755
274.30	27.660
274.51	27.287
274.73	30.580
274.94	34.676
275.16	40.121
275.37	41.386
275.59	36.976
275.80	37.600
276.01	29.563
276.23	29.814
276.44	32.922
276.66	34.990
276.87	36.751
277.09	39.812
277.30	35.155
277.52	35.364
277.73	32.712
277.95	35.731
278.16	33.743
278.38	36.066
278.59	37.110
278.80	36.833
279.02	27.335
279.23	34.966
279.45	33.112
279.66	34.122
279.88	35.229
280.09	35.884
280.31	36.934
280.52	37.099
280.73	40.751
280.95	37.552
281.16	31.511
281.38	34.483
281.59	29.364
281.81	28.100
282.02	26.335
282.24	25.078
282.45	21.545
282.66	17.303
282.88	16.051
283.09	14.888
283.31	20.177
283.52	20.570
283.74	22.271
283.95	19.329
284.16	20.996
284.38	19.721
284.59	21.252
284.81	23.887
285.02	27.709
285.23	35.002
285.45	33.120
285.66	24.443
285.88	24.881
286.09	27.534
286.31	29.177
286.52	24.369
286.73	26.271
286.95	22.729
287.16	24.372
287.38	22.374
287.59	18.033
287.80	16.692
288.02	22.502
288.23	20.266
288.45	23.061
288.66	22.568
288.87	28.710
289.09	26.052
289.30	25.827
289.52	20.223
289.73	16.914
289.94	19.973
290.16	21.062
290.37	19.728
290.58	20.895
290.80	10.617
291.01	12.577
291.23	4.933
291.44	10.995
291.65	11.140
291.87	15.910
292.08	22.862
292.29	15.013
292.51	17.323
292.72	19.584
292.94	14.932
293.15	20.551
293.36	19.423
293.58	23.807
293.79	21.650
294.00	21.513
294.22	16.576
294.43	14.916
294.65	19.651
294.86	20.321
295.07	15.073
295.29	17.344
295.50	13.440
295.71	8.460
295.93	10.745
296.14	10.446
296.35	10.724
296.57	12.586
296.78	11.627
296.99	13.118
297.21	10.947
297.42	15.100
297.63	17.390
297.85	16.032
298.06	22.080
298.28	23.167
298.49	25.187
298.70	24.290
298.92	24.836
299.13	22.505
299.34	17.602
299.56	20.281
299.77	13.138
299.98	13.707
300.20	19.451
300.41	17.572
300.62	16.493
300.84	13.307
301.05	14.795
301.26	12.791
301.47	15.144
301.69	20.747
301.90	16.694
302.11	22.354
302.33	24.000
302.54	27.946
302.75	29.336
302.97	32.716
303.18	29.088
303.39	28.493
303.61	32.138
303.82	28.982
304.03	25.903
304.25	27.983
304.46	28.910
304.67	21.265
304.88	18.307
305.10	18.044
305.31	14.734
305.52	18.667
305.74	25.115
305.95	22.348
306.16	28.238
306.38	29.973
306.59	27.937
306.80	22.430
307.01	26.729
307.23	24.000
307.44	16.577
307.65	18.775
307.87	18.199
308.08	16.168
308.29	20.027
308.50	15.161
308.72	10.010
308.93	12.470
309.14	17.381
309.36	17.747
309.57	19.732
309.78	27.392
309.99	23.520
310.21	23.686
310.42	19.913
310.63	19.342
310.84	23.818
311.06	25.427
311.27	28.737
311.48	28.299
311.70	28.039
311.91	28.373
312.12	24.912
312.33	28.482
312.55	27.123
312.76	26.359
312.97	24.640
313.18	21.746
313.40	23.925
313.61	17.840
313.82	14.568
314.03	12.955
314.25	16.550
314.46	18.508
314.67	14.238
314.88	18.231
315.10	17.947
315.31	15.915
315.52	17.569
315.73	16.306
315.95	18.954
316.16	23.427
316.37	27.227
316.58	20.908
316.80	21.475
317.01	21.836
317.22	16.619
317.43	18.966
317.64	20.253
317.86	23.222
318.07	21.503
318.28	25.640
318.49	24.399
318.71	26.790
318.92	32.067
319.13	30.452
319.34	30.640
319.55	32.500
319.77	35.738
319.98	33.288
320.19	29.520
320.40	32.855
320.62	29.455
320.83	25.687
321.04	24.145
321.25	19.672
321.46	21.611
321.68	27.150
321.89	29.845
322.10	25.892
322.31	25.858
322.52	25.383
322.74	24.633
322.95	25.130
323.16	28.207
323.37	33.291
323.58	38.197
323.80	33.934
324.01	28.836
324.22	28.229
324.43	26.643
324.64	24.044
324.86	25.728
325.07	21.965
325.28	18.249
325.49	20.373
325.70	14.681
325.91	7.466
326.13	15.538
326.34	15.445
326.55	11.583
326.76	15.103
326.97	18.557
327.18	19.959
327.40	23.388
327.61	26.485
327.82	27.579
328.03	27.535
328.24	31.068
328.45	28.981
328.67	29.811
328.88	31.814
329.09	28.171
329.30	30.059
329.51	24.846
329.72	23.711
329.94	23.081
330.15	16.558
330.36	16.580
330.57	17.473
330.78	18.392
330.99	19.043
331.21	13.254
331.42	14.752
331.63	17.098
331.84	20.525
332.05	23.034
332.26	25.056
332.47	26.237
332.69	26.436
332.90	26.023
333.11	24.599
333.32	29.390
333.53	37.357
333.74	39.901
333.95	40.023
334.16	38.405
334.38	36.689
334.59	35.303
334.80	36.236
335.01	37.050
335.22	35.292
335.43	33.181
335.64	29.620
335.85	27.312
336.07	28.188
336.28	24.550
336.49	26.314
336.70	26.914
336.91	27.332
337.12	27.736
337.33	27.768
337.54	29.990
337.76	30.195
337.97	32.109
338.18	33.879
338.39	31.823
338.60	33.837
338.81	31.850
339.02	34.173
339.23	32.657
339.44	37.073
339.65	38.127
339.87	37.048
340.08	34.892
340.29	29.828
340.50	30.382
340.71	28.041
340.92	29.800
341.13	30.453
341.34	29.959
341.55	32.330
341.76	25.616
341.97	25.237
342.19	26.245
342.40	27.562
342.61	27.384
342.82	25.757
343.03	27.659
343.24	24.820
343.45	25.086
343.66	23.419
343.87	21.166
344.08	21.397
344.29	19.939
344.50	17.637
344.71	16.422
344.93	20.355
345.14	18.937
345.35	20.117
345.56	22.439
345.77	22.073
345.98	20.602
346.19	18.479
346.40	19.786
346.61	17.557
346.82	18.294
347.03	21.258
347.24	22.108
347.45	20.725
347.66	15.531
347.87	13.694
348.08	12.542
348.29	13.239
348.50	18.525
348.71	17.842
348.93	21.753
349.14	22.066
349.35	20.650
349.56	18.735
349.77	21.307
349.98	24.148
350.19	24.952
350.40	26.527
350.61	26.239
350.82	26.139
351.03	30.040
351.24	28.010
351.45	30.022
351.66	29.322
351.87	29.573
352.08	29.691
352.29	32.516
352.50	32.122
352.71	29.846
352.92	29.526
353.13	26.776
353.34	22.901
353.55	25.497
353.76	24.470
353.97	24.894
354.18	25.260
354.39	22.619
354.60	20.653
354.81	21.985
355.02	22.060
355.23	24.399
355.44	23.782
355.65	24.101
355.86	22.117
356.07	21.596
356.28	22.287
356.49	21.864
356.70	23.980
356.91	23.904
357.12	22.405
357.33	23.264
357.54	19.429
357.75	18.724
357.96	18.980
358.17	18.663
358.38	16.887
358.59	14.967
358.80	15.875
359.01	14.831
359.22	15.016
359.43	16.476
359.64	15.791
359.85	15.657
360.06	17.472
360.27	17.268
360.48	19.138
360.69	19.793
360.90	21.027
361.11	19.408
361.32	18.646
361.53	16.749
361.74	17.362
361.95	17.483
362.16	18.553
362.37	17.066
362.58	17.618
362.79	15.453
362.99	16.500
363.20	16.795
363.41	16.531
363.62	20.597
363.83	20.663
364.04	20.459
364.25	19.646
364.46	21.856
364.67	22.130
364.88	21.718
365.09	18.907
365.30	18.171
365.51	19.630
365.72	19.834
365.93	13.555
366.14	15.021
366.35	13.810
366.56	14.862
366.76	14.711
366.97	16.529
367.18	16.505
367.39	19.934
367.60	19.970
367.81	14.884
368.02	15.780
368.23	18.984
368.44	17.424
368.65	16.867
368.86	16.703
369.07	17.453
369.28	18.039
369.48	14.338
369.69	14.220
369.90	13.122
370.11	15.144
370.32	14.031
370.53	12.851
370.74	13.580
370.95	13.452
371.16	15.863
371.37	12.649
371.58	10.174
371.78	15.535
371.99	17.883
372.20	19.268
372.41	18.467
372.62	19.897
372.83	22.178
373.04	22.332
373.25	21.562
373.46	19.337
373.67	21.033
373.87	20.656
374.08	18.387
374.29	17.570
374.50	18.402
374.71	18.924
374.92	20.794
375.13	19.594
375.34	21.889
375.55	23.542
375.75	23.395
375.96	23.984
376.17	25.075
376.38	22.672
376.59	22.173
376.80	20.568
377.01	21.727
377.21	18.190
377.42	16.727
377.63	15.692
377.84	13.403
378.05	13.394
378.26	12.177
378.47	11.913
378.68	16.206
378.88	16.368
379.09	17.486
379.30	17.116
379.51	15.744
379.72	17.974
379.93	17.117
380.14	18.058
380.34	16.932
380.55	15.505
380.76	16.125
380.97	13.403
381.18	14.306
381.39	14.236
381.59	13.938
381.80	16.410
382.01	15.523
382.22	16.075
382.43	15.662
382.64	14.602
382.84	17.205
383.05	17.281
383.26	18.634
383.47	16.836
383.68	14.327
383.89	14.132
384.09	13.690
384.30	12.801
384.51	11.198
384.72	11.116
384.93	13.124
385.14	13.186
385.34	12.819
385.55	11.753
385.76	13.677
385.97	14.092
386.18	16.782
386.38	17.181
386.59	16.179
386.80	15.132
387.01	17.709
387.22	16.942
387.42	15.806
387.63	17.250
387.84	18.434
388.05	15.962
388.26	14.881
388.46	15.173
388.67	15.367
388.88	16.943
389.09	17.903
389.30	17.360
389.50	15.974
389.71	16.570
389.92	14.245
390.13	13.723
390.34	14.254
390.54	14.423
390.75	12.292
390.96	11.234
391.17	10.418
391.37	11.705
391.58	11.720
391.79	14.365
392.00	12.383
392.21	13.180
392.41	12.175
392.62	12.767
392.83	13.482
393.04	12.821
393.24	14.145
393.45	15.654
393.66	15.760
393.87	13.450
394.07	11.497
394.28	12.333
394.49	12.220
394.70	12.168
394.91	11.194
395.11	11.766
395.32	12.301
395.53	10.305
395.74	9.194
395.94	8.531
396.15	7.963
396.36	8.837
396.57	9.788
396.77	11.322
396.98	12.981
397.19	11.390
397.40	10.816
397.60	11.481
397.81	11.874
398.02	13.022
398.22	13.876
398.43	14.218
398.64	14.330
398.85	13.835
399.05	13.403
399.26	13.175
399.47	14.701
399.68	15.205
399.88	14.892
400.09	15.066
400.30	15.973
400.50	13.364
400.71	15.480
400.92	15.008
401.13	15.023
401.33	13.964
401.54	12.993
401.75	12.437
401.95	12.173
402.16	12.502
402.37	13.130
402.58	10.592
402.78	13.555
402.99	12.775
403.20	12.919
403.40	12.978
403.61	13.748
403.82	13.373
404.03	13.097
404.23	15.253
404.44	15.742
404.65	16.834
404.85	16.760
405.06	14.865
405.27	14.601
405.47	15.369
405.68	15.522
405.89	14.374
406.09	15.176
406.30	16.189
406.51	15.111
406.71	13.974
406.92	14.647
407.13	16.157
407.34	16.461
407.54	18.541
407.75	17.562
407.96	17.287
408.16	19.184
408.37	17.608
408.58	17.383
408.78	16.099
408.99	15.158
409.20	12.698
409.40	9.722
409.61	11.062
409.82	6.951
410.02	8.290
410.23	8.743
410.44	9.644
410.64	11.752
410.85	11.994
411.05	11.631
411.26	13.578
411.47	13.640
411.67	15.831
411.88	15.404
412.09	17.076
412.29	17.305
412.50	17.594
412.71	17.122
412.91	15.592
413.12	15.429
413.33	15.498
413.53	15.024
413.74	16.239
413.94	15.976
414.15	14.787
414.36	14.443
414.56	14.193
414.77	14.334
414.98	12.477
415.18	12.045
415.39	11.768
415.59	11.714
415.80	11.450
416.01	11.345
416.21	12.134
416.42	12.325
416.63	12.987
416.83	12.827
417.04	12.109
417.24	11.873
417.45	13.917
417.66	15.083
417.86	15.399
418.07	14.879
418.27	14.170
418.48	12.919
418.69	14.065
418.89	14.023
419.10	12.785
419.30	12.098
419.51	12.541
419.72	10.688
419.92	10.634
420.13	10.833
420.33	12.248
420.54	12.014
420.75	11.706
420.95	11.490
421.16	11.501
421.36	12.514
421.57	14.019
421.78	13.986
421.98	14.201
422.19	14.160
422.39	14.096
422.60	13.470
422.80	13.631
423.01	14.627
423.22	13.407
423.42	13.650
423.63	13.236
423.83	11.835
424.04	12.133
424.24	12.913
424.45	12.656
424.66	11.790
424.86	10.897
425.07	10.473
425.27	9.606
425.48	10.858
425.68	9.663
425.89	9.389
426.10	10.043
426.30	10.526
426.51	10.081
426.71	9.923
426.92	10.621
427.12	11.452
427.33	12.415
427.53	11.438
427.74	10.589
427.94	11.419
428.15	11.867
428.36	11.380
428.56	10.946
428.77	11.264
428.97	10.923
429.18	12.460
429.38	12.506
429.59	12.863
429.79	14.815
430.00	15.056
430.20	15.813
430.41	16.129
430.61	16.378
430.82	16.524
431.02	17.075
431.23	17.495
431.43	16.506
431.64	16.313
431.84	16.092
432.05	15.315
432.26	15.306
432.46	13.402
432.67	12.842
432.87	13.164
433.08	11.928
433.28	11.167
433.49	10.312
433.69	10.480
433.90	10.651
434.10	10.398
434.31	10.461
434.51	11.868
434.72	13.064
434.92	13.855
435.13	13.813
435.33	14.031
435.54	14.215
435.74	14.289
435.95	14.323
436.15	15.178
436.36	15.563
436.56	17.118
436.76	15.063
436.97	15.639
437.17	15.556
437.38	16.170
437.58	16.842
437.79	16.390
437.99	17.023
438.20	16.020
438.40	16.141
438.61	16.691
438.81	16.149
439.02	16.596
439.22	15.535
439.43	15.013
439.63	13.868
439.84	12.544
440.04	13.394
440.24	13.032
440.45	13.592
440.65	12.701
440.86	12.103
441.06	12.428
441.27	12.789
441.47	13.503
441.68	14.027
441.88	14.073
442.09	15.271
442.29	14.729
442.49	14.918
442.70	15.371
442.90	15.469
443.11	15.265
443.31	14.876
443.52	13.929
443.72	13.803
443.93	12.565
444.13	13.067
444.33	12.946
444.54	12.440
444.74	12.705
444.95	12.462
445.15	11.840
445.36	12.046
445.56	11.571
445.76	12.315
445.97	11.783
446.17	12.573
446.38	13.063
446.58	13.243
446.79	13.359
446.99	12.896
447.19	13.279
447.40	13.627
447.60	13.544
447.81	13.850
448.01	13.266
448.21	13.795
448.42	12.561
448.62	11.690
448.83	12.350
449.03	13.176
449.23	13.554
449.44	12.897
449.64	12.584
449.85	12.749
450.05	13.375
450.25	13.386
450.46	13.417
450.66	13.592
450.87	13.857
451.07	13.325
451.27	13.681
451.48	13.550
451.68	14.407
451.88	14.664
452.09	15.338
452.29	15.174
452.50	15.534
452.70	15.567
452.90	16.559
453.11	16.715
453.31	16.000
453.51	14.727
453.72	14.581
453.92	12.723
454.13	13.350
454.33	11.947
454.53	11.525
454.74	12.022
454.94	11.257
455.14	11.581
455.35	11.865
455.55	12.164
455.75	12.391
455.96	13.030
456.16	13.377
456.37	13.331
456.57	14.158
456.77	13.771
456.98	12.980
457.18	14.474
457.38	14.164
457.59	14.423
457.79	14.215
457.99	14.403
458.20	13.722
458.40	14.779
458.60	14.003
458.81	13.794
459.01	13.540
459.21	14.155
459.42	13.415
459.62	13.811
459.82	13.222
460.03	13.168
460.23	13.657
460.43	14.358
460.64	13.623
460.84	14.246
461.04	14.322
461.25	15.090
461.45	15.429
461.65	14.347
461.86	13.201
462.06	12.914
462.26	11.727
462.46	11.875
462.67	9.823
462.87	10.847
463.07	11.232
463.28	11.514
463.48	9.888
463.68	9.288
463.89	11.474
464.09	12.353
464.29	11.972
464.49	13.353
464.70	13.473
464.90	15.325
465.10	14.976
465.31	14.263
465.51	12.982
465.71	13.942
465.92	13.430
